Frequency - Plot 0	Voltage(V) - Plot 0	
10000,1	2,12863	
10000,1	2,12837	
10000,1	2,12853	
10000,1	2,12853	
10000,1	2,12843	
10000,1	2,12841	
10000,1	2,12843	
10000,1	2,12833	
10000,1	2,12844	
10000,1	2,12851	
10000,1	2,12847	
10000,1	2,12867	
10000,1	2,1285	
10000,1	2,12856	
10000,1	2,12852	
10000,1	2,12868	
10000,1	2,12867	
10000,1	2,12879	
10000,1	2,12873	
10000,1	2,12882	
10000,1	2,12892	
10000,1	2,12868	
10000,1	2,12876	
10000,1	2,12884	
10000,1	2,12885	
10000,1	2,12877	
10000,1	2,12881	
10000,1	2,12863	
10000,1	2,12871	
10000,1	2,12863	
10000,1	2,12884	
10000,1	2,1287	
10000,1	2,12873	
10000,1	2,12875	
10000,1	2,12882	
10000,1	2,1286	
10000,1	2,12869	
10000,1	2,12896	
10000,1	2,12865	
10000,1	2,12887	
10000,1	2,12875	
10000,1	2,12881	
10000,1	2,12864	
10000,1	2,12855	
10000,1	2,12883	
10000,1	2,12886	
10000,1	2,12877	
10000,1	2,12859	
10000,1	2,12864	
10000,1	2,12857	
10000,1	2,12866	
10000,1	2,12875	
10000,1	2,12864	
10000,1	2,12859	
10000,1	2,12855	
10000,1	2,1286	
10000,1	2,12859	
10000,1	2,12855	
10000,1	2,12845	
10000,1	2,12871	
10000,1	2,12863	
10000,1	2,12865	
10000,1	2,1287	
10000,1	2,12875	
10000,1	2,12857	
10000,1	2,12869	
10000,1	2,12874	
10000,1	2,12869	
10000,1	2,12844	
10000,1	2,12849	
10000,1	2,12856	
10000,1	2,12897	
10000,1	2,12831	
10000,1	2,12845	
10000,1	2,12853	
10000,1	2,12869	
10000,1	2,12869	
10000,1	2,12866	
10000,1	2,12887	
10000,1	2,12879	
10000,1	2,12866	
10000,1	2,12873	
10000,1	2,1286	
10000,1	2,12853	
10000,1	2,12844	
10000,1	2,12879	
10000,1	2,12872	
10000,1	2,12865	
10000,1	2,12867	
10000,1	2,12862	
10000,1	2,12863	
10000,1	2,12861	
10000,1	2,12862	
10000,1	2,12878	
10000,1	2,12864	
10000,1	2,12854	
10000,1	2,12867	
10000,1	2,1286	
10000,1	2,12834	
10000,1	2,1282	
10000,1	2,12834	
10000,1	2,12844	
10000,1	2,12838	
10000,1	2,12823	
10000,1	2,12831	
10000,1	2,12847	
10000,1	2,12855	
10000,1	2,12865	
10000,1	2,12862	
10000,1	2,12847	
10000,1	2,12846	
10000,1	2,1284	
10000,1	2,12867	
10000,1	2,12848	
10000,1	2,12858	
10000,1	2,1283	
10000,1	2,12818	
10000,1	2,12851	
10000,1	2,12848	
10000,1	2,12818	
10000,1	2,12822	
10000,1	2,1286	
10000,1	2,12853	
10000,1	2,1283	
10000,1	2,12837	
10000,1	2,12841	
10000,1	2,12846	
10000,1	2,12836	
10000,1	2,12852	
10000,1	2,12848	
10000,1	2,12841	
10000,1	2,12842	
10000,1	2,12826	
10000,1	2,12818	
10000,1	2,1284	
10000,1	2,12839	
10000,1	2,12839	
10000,1	2,12833	
10000,1	2,12825	
10000,1	2,12839	
10000,1	2,1281	
10000,1	2,12836	
10000,1	2,12843	
10000,1	2,1285	
10000,1	2,12851	
10000,1	2,12838	
10000,1	2,12833	
10000,1	2,12829	
10000,1	2,12827	
10000,1	2,1283	
10000,1	2,12828	
10000,1	2,12815	
10000,1	2,12833	
10000,1	2,12814	
10000,1	2,12819	
10000,1	2,12822	
10000,1	2,12827	
10000,1	2,12843	
10000,1	2,12812	
10000,1	2,12825	
10000,1	2,12819	
10000,1	2,12824	
10000,1	2,12832	
10000,1	2,12828	
10000,1	2,12827	
10000,1	2,12839	
10000,1	2,12839	
10000,1	2,12827	
10000,1	2,12797	
10000,1	2,12806	
10000,1	2,12798	
10000,1	2,12806	
10000,1	2,12802	
10000,1	2,12823	
10000,1	2,12811	
10000,1	2,12822	
10000,1	2,12819	
10000,1	2,1281	
10000,1	2,12824	
10000,1	2,12815	
10000,1	2,12805	
10000,1	2,1279	
10000,1	2,12797	
10000,1	2,12811	
10000,1	2,12802	
10000,1	2,12801	
10000,1	2,128	
10000,1	2,12803	
10000,1	2,1279	
10000,1	2,1278	
10000,1	2,12794	
10000,1	2,12795	
10000,1	2,12782	
10000,1	2,1279	
10000,1	2,12807	
10000,1	2,12801	
10000,1	2,12801	
10000,1	2,12802	
10000,1	2,12783	
10000,1	2,12792	
10000,1	2,12785	
10000,1	2,1281	
10000,1	2,128	
10000,1	2,12803	
10000,1	2,12786	
10000,1	2,12776	
10000,1	2,12801	
10000,1	2,12782	
10000,1	2,12764	
10000,1	2,12773	
10000,1	2,12772	
10000,1	2,12778	
10000,1	2,12791	
10000,1	2,1278	
10000,1	2,12771	
10000,1	2,12799	
10000,1	2,12799	
10000,1	2,12801	
10000,1	2,128	
10000,1	2,12777	
10000,1	2,12801	
10000,1	2,12794	
10000,1	2,12802	
10000,1	2,12803	
10000,1	2,12791	
10000,1	2,12776	
10000,1	2,12782	
10000,1	2,12778	
10000,1	2,1278	
10000,1	2,12762	
10000,1	2,12779	
10000,1	2,12763	
10000,1	2,12788	
10000,1	2,12789	
10000,1	2,12776	
10000,1	2,12787	
10000,1	2,1277	
10000,1	2,12761	
10000,1	2,12786	
10000,1	2,12788	
10000,1	2,12777	
10000,1	2,12784	
10000,1	2,1279	
10000,1	2,12762	
10000,1	2,12763	
10000,1	2,12753	
10000,1	2,12778	
10000,1	2,12774	
10000,1	2,12786	
10000,1	2,12764	
10000,1	2,12769	
10000,1	2,12748	
10000,1	2,12754	
10000,1	2,1275	
10000,1	2,12772	
10000,1	2,12776	
10000,1	2,1276	
10000,1	2,12761	
10000,1	2,12759	
10000,1	2,1276	
10000,1	2,12774	
10000,1	2,12744	
10000,1	2,12776	
10000,1	2,12759	
10000,1	2,12756	
10000,1	2,12749	
10000,1	2,12745	
10000,1	2,12776	
10000,1	2,12771	
10000,1	2,12746	
10000,1	2,12746	
10000,1	2,12739	
10000,1	2,12742	
10000,1	2,12742	
10000,1	2,12754	
10000,1	2,12731	
10000,1	2,12743	
10000,1	2,1274	
10000,1	2,12763	
10000,1	2,12756	
10000,1	2,12743	
10000,1	2,12748	
10000,1	2,1275	
10000,1	2,12742	
10000,1	2,1273	
10000,1	2,12731	
10000,1	2,12747	
10000,1	2,12722	
10000,1	2,12727	
10000,1	2,12748	
10000,1	2,12757	
10000,1	2,12751	
10000,1	2,12759	
10000,1	2,12749	
10000,1	2,12777	
10000,1	2,12764	
10000,1	2,12744	
10000,1	2,12751	
10000,1	2,1274	
10000,1	2,1274	
10000,1	2,12751	
10000,1	2,12754	
10000,1	2,12751	
